  Measurement Number     Measurement type
                  70                DC IV

      Measurement ID             SeriesID
       739603.485311                   13

         MeasureMode                Bias1                Bias2
                   2                   -2                    2

                Step  Positive compliance  Negative compliance
                 0.1                 0.01                 0.01

  RealMeasuredPoints
                  42

        Bias        Current     Resistance
0.0000e+00   1.4650e-08   0.0000e+00
-1.0000e-01   -9.0716e-06   1.1023e+04
-2.0000e-01   -1.8164e-05   1.1011e+04
-3.0000e-01   -2.7244e-05   1.1012e+04
-4.0000e-01   -3.6320e-05   1.1013e+04
-5.0000e-01   -4.5400e-05   1.1013e+04
-6.0000e-01   -5.4492e-05   1.1011e+04
-7.0000e-01   -6.3588e-05   1.1008e+04
-8.0000e-01   -7.2682e-05   1.1007e+04
-9.0000e-01   -8.1788e-05   1.1004e+04
-1.0000e+00   -9.0896e-05   1.1002e+04
-1.1000e+00   -1.0001e-04   1.0999e+04
-1.2000e+00   -1.0913e-04   1.0996e+04
-1.3000e+00   -1.1816e-04   1.1002e+04
-1.4000e+00   -1.2728e-04   1.0999e+04
-1.5000e+00   -1.3646e-04   1.0992e+04
-1.6000e+00   -1.4564e-04   1.0986e+04
-1.7000e+00   -1.5486e-04   1.0978e+04
-1.8000e+00   -1.6410e-04   1.0969e+04
-1.9000e+00   -1.7344e-04   1.0955e+04
-2.0000e+00   -1.8274e-04   1.0945e+04
-2.0000e+00   -1.8276e-04   1.0943e+04
-1.9000e+00   -1.7342e-04   1.0956e+04
-1.8000e+00   -1.6412e-04   1.0968e+04
-1.7000e+00   -1.5490e-04   1.0975e+04
-1.6000e+00   -1.4570e-04   1.0981e+04
-1.5000e+00   -1.3648e-04   1.0991e+04
-1.4000e+00   -1.2732e-04   1.0996e+04
-1.3000e+00   -1.1814e-04   1.1004e+04
-1.2000e+00   -1.0902e-04   1.1007e+04
-1.1000e+00   -1.0005e-04   1.0995e+04
-1.0000e+00   -9.0924e-05   1.0998e+04
-9.0000e-01   -8.1816e-05   1.1000e+04
-8.0000e-01   -7.2712e-05   1.1002e+04
-7.0000e-01   -6.3606e-05   1.1005e+04
-6.0000e-01   -5.4514e-05   1.1006e+04
-5.0000e-01   -4.5422e-05   1.1008e+04
-4.0000e-01   -3.6330e-05   1.1010e+04
-3.0000e-01   -2.7246e-05   1.1011e+04
-2.0000e-01   -1.8170e-05   1.1007e+04
-1.0000e-01   -9.0690e-06   1.1027e+04
0.0000e+00   1.3872e-08   0.0000e+00
