  Measurement Number     Measurement type
                   1                DC IV

      Measurement ID             SeriesID
       739603.511062                    0

         MeasureMode                Bias1                Bias2
                   2                   -3                  2.5

                Step  Positive compliance  Negative compliance
                 0.1                  0.1                  0.1

  RealMeasuredPoints
                 114

        Bias        Current     Resistance
0.0000e+00   5.7000e-13   0.0000e+00
-1.0000e-01   8.3100e-12   -1.2034e+10
-2.0000e-01   -6.0300e-12   3.3167e+10
-3.0000e-01   -7.5000e-13   4.0000e+11
-4.0000e-01   6.4600e-12   -6.1920e+10
-5.0000e-01   2.9000e-13   -1.7241e+12
-6.0000e-01   9.4700e-12   -6.3358e+10
-7.0000e-01   -6.2600e-12   1.1182e+11
-8.0000e-01   7.8000e-13   -1.0256e+12
-9.0000e-01   7.6200e-12   -1.1811e+11
-1.0000e+00   -7.6000e-13   1.3158e+12
-1.1000e+00   9.0800e-12   -1.2115e+11
-1.2000e+00   -6.7600e-12   1.7751e+11
-1.3000e+00   -3.8800e-12   3.3505e+11
-1.4000e+00   6.2300e-12   -2.2472e+11
-1.5000e+00   3.5000e-13   -4.2857e+12
-1.6000e+00   7.9500e-12   -2.0126e+11
-1.7000e+00   -1.9100e-12   8.9005e+11
-1.8000e+00   -9.0000e-12   2.0000e+11
-1.9000e+00   -3.5100e-12   5.4131e+11
-2.0000e+00   -1.0410e-11   1.9212e+11
-2.1000e+00   8.7900e-12   -2.3891e+11
-2.2000e+00   -1.0700e-12   2.0561e+12
-2.3000e+00   -6.0800e-12   3.7829e+11
-2.4000e+00   7.2800e-12   -3.2967e+11
-2.5000e+00   -4.2700e-12   5.8548e+11
-2.6000e+00   6.5100e-12   -3.9939e+11
-2.7000e+00   -3.5400e-12   7.6271e+11
-2.8000e+00   -5.4200e-12   5.1661e+11
-2.9000e+00   8.9400e-12   -3.2438e+11
-3.0000e+00   -2.9700e-12   1.0101e+12
-3.0000e+00   -8.8400e-12   3.3937e+11
-2.9000e+00   -4.5500e-12   6.3736e+11
-2.8000e+00   9.8500e-12   -2.8426e+11
-2.7000e+00   -7.9300e-12   3.4048e+11
-2.6000e+00   9.2800e-12   -2.8017e+11
-2.5000e+00   -1.5700e-12   1.5924e+12
-2.4000e+00   -1.0100e-12   2.3762e+12
-2.3000e+00   1.0270e-11   -2.2395e+11
-2.2000e+00   1.6500e-12   -1.3333e+12
-2.1000e+00   7.9700e-12   -2.6349e+11
-2.0000e+00   -1.0970e-11   1.8232e+11
-1.9000e+00   2.1800e-12   -8.7156e+11
-1.8000e+00   5.7500e-12   -3.1304e+11
-1.7000e+00   -3.0200e-12   5.6291e+11
-1.6000e+00   5.1800e-12   -3.0888e+11
-1.5000e+00   -1.0170e-11   1.4749e+11
-1.4000e+00   1.9100e-12   -7.3298e+11
-1.3000e+00   6.6400e-12   -1.9578e+11
-1.2000e+00   1.8100e-12   -6.6298e+11
-1.1000e+00   6.8300e-12   -1.6105e+11
-1.0000e+00   -9.4100e-12   1.0627e+11
-9.0000e-01   5.1300e-12   -1.7544e+11
-8.0000e-01   4.8100e-12   -1.6632e+11
-7.0000e-01   1.7300e-12   -4.0462e+11
-6.0000e-01   1.0500e-11   -5.7143e+10
-5.0000e-01   -6.5500e-12   7.6336e+10
-4.0000e-01   3.9800e-12   -1.0050e+11
-3.0000e-01   9.2700e-12   -3.2362e+10
-2.0000e-01   -2.0100e-12   9.9502e+10
-1.0000e-01   9.4500e-12   -1.0582e+10
0.0000e+00   -3.7100e-12   -0.0000e+00
0.0000e+00   5.3700e-12   0.0000e+00
1.0000e-01   -4.6400e-12   -2.1552e+10
2.0000e-01   1.3060e-11   1.5314e+10
3.0000e-01   -2.4800e-12   -1.2097e+11
4.0000e-01   -9.2000e-13   -4.3478e+11
5.0000e-01   4.1500e-12   1.2048e+11
6.0000e-01   -2.5900e-12   -2.3166e+11
7.0000e-01   1.2860e-11   5.4432e+10
8.0000e-01   4.7000e-12   1.7021e+11
9.0000e-01   9.0000e-14   1.0000e+13
1.0000e+00   1.2280e-11   8.1433e+10
1.1000e+00   -3.6500e-12   -3.0137e+11
1.2000e+00   1.3310e-11   9.0158e+10
1.3000e+00   2.4800e-12   5.2419e+11
1.4000e+00   -6.7200e-12   -2.0833e+11
1.5000e+00   3.3300e-12   4.5045e+11
1.6000e+00   -5.0700e-12   -3.1558e+11
1.7000e+00   1.0920e-11   1.5568e+11
1.8000e+00   4.4300e-12   4.0632e+11
1.9000e+00   1.0200e-12   1.8627e+12
2.0000e+00   4.5200e-12   4.4248e+11
2.1000e+00   -2.2600e-12   -9.2920e+11
2.2000e+00   1.2460e-11   1.7657e+11
2.3000e+00   -2.5700e-12   -8.9494e+11
2.4000e+00   1.9400e-12   1.2371e+12
2.5000e+00   1.4080e-11   1.7756e+11
2.5000e+00   1.1870e-11   2.1061e+11
2.4000e+00   -9.0700e-12   -2.6461e+11
2.3000e+00   1.5600e-12   1.4744e+12
2.2000e+00   1.0990e-11   2.0018e+11
2.1000e+00   3.2600e-12   6.4417e+11
2.0000e+00   9.1100e-12   2.1954e+11
1.9000e+00   -6.5700e-12   -2.8919e+11
1.8000e+00   2.7700e-12   6.4982e+11
1.7000e+00   1.1300e-11   1.5044e+11
1.6000e+00   -3.8400e-12   -4.1667e+11
1.5000e+00   1.0440e-11   1.4368e+11
1.4000e+00   -5.8500e-12   -2.3932e+11
1.3000e+00   2.6000e-13   5.0000e+12
1.2000e+00   1.0250e-11   1.1707e+11
1.1000e+00   2.1100e-12   5.2133e+11
1.0000e+00   9.9800e-12   1.0020e+11
9.0000e-01   -4.5300e-12   -1.9868e+11
8.0000e-01   -1.1500e-12   -6.9565e+11
7.0000e-01   5.4000e-12   1.2963e+11
6.0000e-01   -3.0500e-12   -1.9672e+11
5.0000e-01   9.6100e-12   5.2029e+10
4.0000e-01   -5.2200e-12   -7.6628e+10
3.0000e-01   -2.2000e-12   -1.3636e+11
2.0000e-01   1.1000e-11   1.8182e+10
1.0000e-01   -5.4000e-13   -1.8519e+11
0.0000e+00   8.1900e-12   0.0000e+00
